Time(s)	Conductance(uS)
0.000000	13.540500
0.100000	13.666700
0.200000	13.540500
0.300000	13.666700
0.400000	13.793100
0.500000	13.666700
0.600000	13.793100
0.700000	14.046800
0.800000	13.919800
0.900000	14.046800
1.000000	14.174100
1.100000	14.046800
1.200000	14.301700
1.300000	14.429500
1.400000	14.301700
1.500000	14.429500
1.600000	14.429500
1.700000	14.429500
1.800000	14.429500
1.900000	14.557700
2.000000	14.429500
2.100000	14.557700
2.200000	14.814800
2.300000	14.814800
2.400000	14.814800
2.500000	14.814800
2.600000	14.814800
2.700000	14.943800
2.801000	14.814800
2.901000	14.814800
3.001000	14.814800
3.101000	14.814800
3.201000	14.814800
3.301000	14.814800
3.401000	14.814800
3.501000	14.814800
3.601000	12.417600
3.701000	13.038700
3.801000	12.171100
3.901000	11.925600
4.001000	10.000000
4.101000	10.237100
4.201000	12.665200
4.301000	11.803300
4.401000	11.803300
4.501000	12.048200
4.601000	12.417600
4.701000	12.171100
4.801000	12.294200
4.901000	12.294200
5.001000	12.171100
5.101000	12.048200
5.201000	13.289000
5.301000	12.048200
5.401000	12.171100
5.501000	12.913900
5.601000	12.789400
5.702000	12.789400
5.802000	12.541300
5.902000	12.294200
6.002000	12.665200
6.102000	12.417600
6.202000	12.048200
6.302000	12.171100
6.402000	11.195700
6.502000	10.594600
6.602000	10.000000
6.702000	9.881800
6.802000	9.763900
6.902000	10.237100
7.002000	13.414600
7.102000	11.681200
7.202000	13.289000
7.302000	13.414600
7.402000	13.289000
7.502000	13.289000
7.602000	13.289000
7.702000	13.414600
7.802000	13.289000
7.902000	12.789400
8.002000	13.414600
8.102000	13.163700
8.202000	13.414600
8.302000	13.414600
8.402000	13.414600
8.502000	13.414600
8.603000	13.540500
8.703000	13.540500
8.803000	13.540500
8.903000	13.414600
9.003000	13.540500
9.103000	13.666700
9.203000	13.540500
9.303000	13.666700
9.403000	13.793100
9.503000	13.666700
9.603000	13.919800
9.703000	14.046800
9.803000	13.919800
9.903000	14.046800
10.003000	14.301700
10.103000	14.046800
10.203000	14.301700
10.303000	14.429500
10.403000	14.301700
10.503000	14.429500
10.603000	14.557700
10.703000	14.557700
10.803000	14.686100
10.903000	14.814800
11.003000	14.686100
11.103000	14.814800
11.203000	14.814800
11.303000	14.814800
11.403000	14.814800
11.503000	14.943800
11.603000	14.814800
11.703000	14.814800
11.803000	14.814800
11.903000	14.943800
12.003000	14.943800
12.103000	14.943800
12.203000	14.943800
12.303000	14.943800
12.403000	14.943800
12.503000	14.943800
12.603000	14.943800
12.703000	14.943800
12.803000	14.943800
12.903000	14.943800
13.003000	14.943800
13.103000	14.943800
13.203000	14.943800
13.303000	14.943800
13.403000	14.943800
13.503000	14.943800
13.603000	14.943800
13.703000	14.943800
13.803000	14.943800
13.903000	14.943800
14.003000	15.724000
14.103000	14.814800
14.203000	15.593200
14.303000	14.814800
14.403000	14.557700
14.503000	15.073100
14.603000	14.301700
14.703000	14.046800
14.803000	14.301700
14.903000	13.919800
15.003000	14.174100
15.103000	13.919800
15.203000	13.793100
15.303000	13.919800
15.403000	13.666700
15.503000	13.540500
15.603000	13.666700
15.703000	13.540500
15.803000	13.540500
15.903000	13.540500
16.003000	13.414600
16.103000	13.414600
16.203000	13.414600
16.303000	13.414600
16.403000	13.289000
16.503000	13.414600
16.603000	13.289000
16.703000	13.289000
16.803000	13.289000
16.903000	13.414600
17.003000	13.289000
17.103000	13.414600
17.203000	13.414600
17.303000	13.414600
17.403000	13.414600
17.503000	13.414600
17.603000	13.414600
17.703000	13.414600
17.803000	13.540500
17.903000	13.540500
18.003000	13.540500
18.103000	13.540500
18.203000	13.666700
18.303000	13.666700
18.403000	13.666700
18.503000	13.666700
18.603000	13.666700
18.703000	13.793100
18.803000	13.793100
18.903000	13.793100
19.003000	13.793100
19.103000	13.793100
19.203000	13.793100
19.303000	13.919800
19.403000	13.919800
19.503000	14.046800
19.603000	14.301700
19.703000	14.046800
19.803000	14.301700
19.903000	14.429500
20.003000	14.301700
20.103000	14.429500
20.203000	14.686100
20.303000	14.429500
20.403000	14.686100
20.503000	14.814800
20.603000	14.686100
20.703000	14.814800
20.803000	15.073100
20.903000	14.943800
21.003000	15.073100
21.103000	15.202700
21.203000	15.073100
21.303000	15.202700
21.403000	15.073100
21.503000	15.073100
21.603000	15.202700
21.703000	15.073100
21.803000	15.202700
21.903000	15.202700
22.003000	15.202700
22.103000	15.202700
22.203000	15.202700
22.303000	14.174100
22.403000	15.202700
22.503000	15.073100
22.603000	15.073100
22.703000	15.073100
22.803000	15.073100
22.903000	15.073100
23.003000	15.073100
23.103000	14.943800
23.203000	15.073100
23.303000	15.073100
23.403000	15.073100
23.503000	15.073100
23.603000	15.073100
23.703000	15.073100
23.803000	14.943800
23.903000	15.073100
24.003000	15.073100
24.103000	15.073100
24.203000	15.073100
24.303000	14.814800
24.403000	15.073100
24.503000	14.686100
24.603000	14.943800
24.703000	14.686100
24.803000	14.301700
24.903000	14.686100
25.003000	14.174100
25.103000	13.919800
25.203000	14.174100
25.303000	13.919800
25.403000	13.666700
25.503000	13.793100
25.603000	13.666700
25.703000	13.540500
25.803000	13.666700
25.903000	13.540500
26.003000	13.414600
26.103000	13.540500
26.203000	13.540500
26.303000	13.414600
26.403000	13.414600
26.503000	13.414600
26.603000	13.289000
26.703000	13.289000
26.803000	13.289000
26.903000	13.289000
27.003000	13.289000
27.103000	13.289000
27.203000	13.289000
27.303000	13.289000
27.403000	13.289000
27.503000	13.289000
27.603000	13.289000
27.703000	13.289000
27.803000	13.289000
27.903000	13.289000
28.003000	13.289000
28.103000	13.289000
28.203000	13.289000
28.303000	13.289000
28.403000	13.289000
28.503000	13.289000
28.603000	13.289000
28.703000	13.289000
28.803000	13.289000
28.903000	13.289000
29.003000	13.289000
29.103000	13.289000
29.203000	13.289000
29.303000	13.289000
29.403000	13.414600
29.503000	13.414600
29.603000	13.289000
29.703000	13.414600
29.803000	13.666700
29.903000	13.540500
30.003000	13.666700
30.103000	13.793100
30.203000	13.666700
30.303000	13.919800
30.403000	14.046800
30.503000	13.919800
30.603000	14.174100
30.703000	14.301700
30.803000	14.046800
30.903000	14.174100
31.003000	14.174100
31.103000	14.174100
31.203000	14.301700
31.303000	14.301700
31.403000	14.301700
31.503000	14.429500
31.603000	14.301700
31.703000	14.429500
31.803000	14.557700
31.903000	14.429500
32.003000	14.557700
32.103000	14.557700
32.203000	14.557700
32.303000	14.557700
32.403000	14.557700
32.503000	14.557700
32.603000	14.557700
32.703000	14.557700
32.803000	14.557700
32.903000	14.557700
33.003000	14.557700
33.103000	14.557700
33.203000	14.557700
33.303000	14.557700
33.403000	14.429500
33.503000	14.557700
33.603000	14.557700
33.703000	14.557700
33.803000	14.557700
33.903000	14.557700
34.003000	14.557700
34.103000	14.557700
34.203000	14.557700
34.303000	14.557700
34.403000	14.557700
34.503000	14.429500
34.603000	14.686100
34.703000	14.686100
34.803000	14.557700
34.903000	14.557700
35.003000	14.174100
35.103000	14.557700
35.203000	14.174100
35.303000	13.793100
35.403000	14.046800
35.503000	13.666700
35.603000	13.414600
35.703000	13.666700
35.803000	13.414600
35.903000	13.289000
36.003000	13.414600
36.103000	13.163700
36.203000	13.038700
36.303000	13.289000
36.403000	13.038700
36.503000	13.038700
36.603000	13.038700
36.703000	12.913900
36.803000	12.913900
36.903000	12.913900
37.003000	12.913900
37.103000	12.913900
37.203000	12.913900
37.303000	12.913900
37.403000	12.913900
37.503000	12.913900
37.603000	12.913900
37.703000	12.913900
37.803000	12.913900
37.903000	12.913900
38.003000	12.913900
38.103000	12.913900
38.203000	12.913900
38.303000	12.913900
38.403000	12.913900
38.503000	12.789400
38.603000	12.913900
38.703000	12.913900
38.803000	12.789400
38.903000	12.789400
39.003000	12.789400
39.103000	12.913900
39.203000	12.789400
39.303000	12.913900
39.403000	12.913900
39.503000	12.913900
39.603000	12.913900
39.703000	12.913900
39.803000	12.913900
39.903000	12.913900
40.003000	12.913900
40.103000	12.913900
40.203000	12.913900
40.303000	13.038700
40.403000	12.913900
40.503000	13.163700
40.603000	12.913900
40.703000	13.163700
40.803000	13.289000
40.903000	13.038700
41.003000	13.289000
41.103000	13.414600
41.203000	13.289000
41.303000	13.540500
41.403000	13.666700
41.503000	13.540500
41.603000	13.666700
41.703000	13.919800
41.803000	13.793100
41.903000	13.919800
42.003000	14.046800
42.103000	13.919800
42.203000	14.046800
42.303000	14.174100
42.403000	13.919800
42.503000	14.046800
42.603000	14.174100
42.703000	14.046800
42.803000	14.174100
42.903000	14.174100
43.003000	14.174100
43.103000	14.174100
43.203000	14.174100
43.303000	14.174100
43.403000	14.174100
43.503000	14.174100
43.603000	14.174100
43.703000	14.174100
43.803000	14.174100
43.903000	14.174100
44.003000	14.174100
44.103000	14.174100
44.203000	14.174100
44.303000	14.174100
44.403000	14.174100
44.503000	14.046800
44.603000	14.046800
44.703000	14.174100
44.803000	14.046800
44.903000	14.046800
45.003000	14.174100
45.103000	14.046800
45.203000	14.174100
45.303000	14.046800
45.403000	14.174100
45.503000	14.046800
45.603000	14.174100
45.703000	14.046800
45.803000	14.046800
45.903000	14.174100
46.003000	13.919800
46.103000	13.540500
46.203000	14.046800
46.303000	13.540500
46.403000	13.163700
46.503000	13.666700
46.603000	13.163700
46.703000	13.038700
46.803000	12.789400
46.903000	13.038700
47.003000	8.714100
47.103000	12.789400
47.203000	12.417600
47.303000	12.541300
47.403000	12.665200
47.503000	12.541300
47.603000	10.954400
47.703000	11.559400
47.803000	11.316600
47.903000	11.437900
48.003000	11.559400
48.103000	11.559400
48.203000	11.803300
48.303000	11.925600
48.403000	10.356000
48.503000	12.171100
48.603000	12.294200
48.703000	12.294200
48.803000	12.417600
48.903000	12.417600
49.003000	12.294200
49.103000	12.294200
49.203000	10.714300
49.303000	9.763900
49.403000	8.483600
49.503000	10.714300
49.603000	10.954400
49.703000	10.954400
49.803000	11.074900
49.903000	11.559400
50.003000	11.559400
50.103000	11.559400
50.203000	11.559400
50.303000	11.559400
50.403000	11.559400
50.503000	11.559400
50.603000	11.803300
50.703000	12.417600
50.803000	12.541300
50.903000	12.665200
51.003000	12.665200
51.103000	12.541300
51.203000	12.665200
51.303000	12.665200
51.403000	11.803300
51.503000	12.417600
51.603000	12.294200
51.703000	12.171100
51.803000	12.171100
51.903000	12.171100
52.003000	12.048200
52.103000	12.171100
52.203000	12.294200
52.303000	12.171100
52.403000	12.417600
52.503000	12.541300
52.603000	12.417600
52.703000	12.541300
52.803000	12.665200
52.903000	12.541300
53.003000	12.789400
53.103000	12.913900
53.203000	12.789400
53.303000	12.913900
53.403000	12.665200
53.503000	12.913900
53.603000	13.163700
53.703000	10.714300
53.803000	13.793100
53.903000	13.919800
54.003000	12.913900
54.103000	13.038700
54.203000	12.417600
54.303000	12.541300
54.403000	12.541300
54.503000	14.429500
54.603000	12.541300
54.703000	13.540500
54.803000	13.289000
54.903000	12.171100
55.003000	12.171100
55.103000	12.417600
55.203000	12.913900
55.303000	13.540500
55.403000	13.414600
55.503000	13.919800
55.603000	13.919800
55.703000	13.919800
55.803000	13.919800
55.903000	13.540500
56.003000	13.919800
56.103000	13.919800
56.203000	14.046800
56.303000	12.171100
56.403000	10.475200
56.503000	13.163700
56.603000	10.954400
56.703000	14.046800
56.803000	14.046800
56.903000	14.046800
57.003000	14.046800
57.103000	14.046800
57.203000	14.046800
57.303000	14.046800
57.403000	14.046800
57.503000	14.046800
57.603000	14.046800
57.703000	14.174100
57.803000	14.046800
57.903000	14.174100
58.003000	14.174100
58.103000	14.174100
58.203000	14.301700
58.303000	14.301700
58.403000	14.429500
58.503000	14.429500
58.603000	13.540500
58.703000	14.046800
58.803000	13.919800
58.903000	13.540500
59.003000	14.046800
59.103000	13.666700
59.203000	13.289000
59.303000	13.666700
59.403000	13.414600
59.503000	13.289000
59.603000	13.163700
59.703000	12.541300
59.803000	13.414600
59.903000	13.289000
60.003000	13.163700
60.103000	13.414600
60.203000	13.289000
60.303000	13.163700
60.403000	13.163700
60.503000	13.289000
60.603000	9.294900
60.703000	12.913900
60.803000	13.414600
60.903000	13.414600
61.003000	13.414600
61.103000	13.289000
61.203000	13.289000
61.303000	13.414600
61.403000	13.289000
61.503000	13.289000
61.603000	13.414600
61.703000	13.289000
61.803000	13.289000
61.903000	13.289000
62.003000	13.289000
62.103000	13.289000
62.203000	12.913900
62.303000	12.913900
62.403000	13.163700
62.503000	13.289000
62.603000	13.289000
62.703000	13.289000
62.803000	13.289000
62.903000	13.163700
63.003000	13.289000
63.103000	13.289000
63.203000	13.163700
63.303000	13.163700
63.403000	13.163700
63.503000	13.163700
63.603000	13.163700
63.703000	13.163700
63.803000	13.163700
63.903000	13.289000
64.003000	13.414600
64.103000	13.414600
64.203000	13.414600
64.303000	13.414600
64.403000	13.414600
64.503000	13.038700
64.603000	13.163700
64.703000	13.038700
64.803000	12.048200
64.903000	13.289000
65.003000	13.289000
65.103000	13.289000
65.203000	13.289000
65.303000	12.913900
65.403000	13.289000
65.503000	13.289000
65.603000	13.414600
65.703000	13.289000
65.803000	13.414600
65.903000	13.414600
66.003000	13.414600
66.103000	13.540500
66.203000	13.540500
66.303000	9.411800
66.403000	11.195700
66.503000	14.046800
66.603000	14.429500
66.703000	6.341000
66.803000	14.046800
66.903000	14.046800
67.003000	2.300000
67.103000	0.000000
67.203000	4.923100
67.303000	14.046800
67.403000	13.540500
67.503000	13.414600
67.603000	13.414600
67.703000	13.163700
67.803000	13.289000
67.903000	14.046800
68.003000	14.046800
68.103000	9.646300
68.203000	10.237100
68.303000	0.195900
68.403000	9.061800
68.503000	14.046800
68.603000	14.814800
68.703000	12.294200
68.803000	14.943800
68.903000	14.557700
69.003000	12.541300
69.103000	14.686100
69.203000	14.429500
69.303000	14.557700
69.403000	14.046800
69.503000	14.429500
69.603000	14.429500
69.703000	14.429500
69.803000	14.429500
69.903000	14.557700
70.003000	14.429500
70.103000	14.557700
70.203000	14.686100
70.303000	14.557700
70.403000	14.686100
70.503000	14.686100
70.603000	14.557700
70.703000	14.429500
70.803000	14.046800
70.903000	12.417600
71.003000	11.803300
71.103000	11.803300
71.203000	11.925600
71.303000	12.417600
71.403000	12.665200
71.503000	12.789400
71.603000	12.789400
71.703000	12.913900
71.803000	12.913900
71.903000	13.038700
72.003000	13.038700
72.103000	13.038700
72.203000	13.163700
72.303000	13.163700
72.403000	13.289000
72.503000	13.289000
72.603000	13.289000
72.703000	13.414600
72.803000	13.414600
72.903000	13.414600
73.003000	14.046800
73.103000	14.301700
73.203000	14.429500
73.303000	15.073100
73.403000	13.540500
73.503000	15.593200
73.603000	14.686100
73.703000	15.724000
73.803000	15.202700
73.903000	15.462800
74.003000	15.462800
74.103000	15.462800
74.203000	15.332600
74.303000	14.943800
74.403000	14.429500
74.503000	14.174100
74.603000	14.429500
74.703000	14.557700
74.803000	14.557700
74.903000	14.429500
75.003000	14.557700
75.103000	14.557700
75.203000	14.557700
75.303000	14.686100
75.403000	14.814800
75.503000	14.943800
75.603000	14.943800
75.703000	15.073100
75.803000	15.202700
75.903000	15.202700
76.003000	15.332600
76.103000	15.332600
76.203000	15.462800
76.303000	15.593200
76.403000	15.724000
76.503000	15.724000
76.603000	15.855000
76.703000	15.855000
76.803000	15.855000
76.903000	15.986400
77.003000	15.986400
77.103000	16.118000
77.203000	16.118000
77.303000	16.118000
77.403000	16.118000
77.503000	15.986400
77.603000	16.118000
77.703000	16.118000
77.803000	15.855000
77.903000	16.118000
78.003000	15.986400
78.103000	15.724000
78.203000	15.986400
78.303000	15.855000
78.403000	15.593200
78.503000	15.986400
78.603000	15.724000
78.703000	15.332600
78.803000	15.855000
78.903000	15.462800
79.003000	15.855000
79.103000	15.593200
79.203000	15.332600
79.303000	15.855000
79.403000	15.593200
79.503000	15.332600
79.603000	15.724000
79.703000	15.462800
79.803000	15.202700
79.903000	15.724000
80.003000	15.462800
80.103000	15.202700
80.203000	15.593200
80.303000	15.202700
80.403000	15.462800
80.503000	16.118000
80.603000	15.986400
80.703000	15.855000
80.803000	15.986400
80.903000	15.855000
81.003000	13.540500
81.103000	15.332600
81.203000	15.462800
81.303000	14.943800
81.403000	15.593200
81.503000	15.593200
81.603000	15.202700
81.703000	15.593200
81.803000	15.462800
81.903000	15.332600
82.003000	15.462800
82.103000	15.332600
82.203000	15.462800
82.303000	15.332600
82.403000	15.202700
82.503000	15.332600
82.603000	15.202700
82.703000	15.202700
82.803000	15.202700
82.903000	15.202700
83.003000	15.202700
83.103000	15.202700
83.203000	15.202700
83.303000	15.073100
83.403000	15.202700
83.503000	15.073100
83.603000	15.073100
83.703000	15.073100
83.803000	15.073100
83.903000	15.073100
84.003000	15.073100
84.103000	15.073100
84.203000	14.943800
84.303000	15.073100
84.403000	15.073100
84.503000	10.834200
84.603000	15.855000
84.703000	7.797700
84.803000	15.855000
84.903000	15.724000
85.003000	15.724000
85.103000	15.593200
85.203000	15.593200
85.303000	15.593200
85.403000	15.593200
85.503000	15.593200
85.603000	15.593200
85.703000	15.593200
85.803000	15.593200
85.903000	15.462800
86.003000	15.462800
86.103000	15.462800
86.203000	15.462800
86.303000	15.202700
86.403000	15.462800
86.503000	13.666700
86.603000	15.332600
86.703000	15.332600
86.803000	15.332600
86.903000	15.202700
87.003000	15.202700
87.103000	15.202700
87.203000	15.202700
87.303000	15.202700
87.403000	15.202700
87.503000	15.202700
87.603000	15.202700
87.703000	15.202700
87.803000	15.332600
87.903000	15.332600
88.003000	15.332600
88.103000	15.462800
88.203000	14.301700
88.303000	14.046800
88.403000	15.202700
88.503000	15.073100
88.603000	15.073100
88.703000	15.332600
88.803000	14.557700
88.903000	0.000000
89.003000	15.462800
89.103000	14.429500
89.203000	12.913900
89.303000	11.925600
89.403000	11.681200
89.503000	11.803300
89.603000	11.925600
89.703000	11.925600
89.803000	12.048200
89.903000	12.171100
90.003000	12.171100
90.103000	12.171100
90.203000	12.171100
90.303000	12.171100
90.403000	12.294200
90.503000	12.294200
90.603000	12.417600
90.703000	12.417600
90.803000	12.541300
90.903000	12.789400
91.003000	12.789400
91.103000	12.913900
91.203000	13.540500
91.303000	14.429500
91.403000	14.686100
91.503000	13.289000
91.603000	15.855000
91.703000	14.943800
91.803000	15.724000
91.903000	1.791000
92.003000	15.986400
92.103000	15.462800
92.203000	13.038700
92.303000	14.686100
92.403000	14.557700
92.503000	15.332600
92.603000	15.462800
92.703000	14.046800
92.803000	15.332600
92.903000	15.332600
93.003000	15.202700
93.103000	15.202700
93.203000	15.332600
93.303000	15.332600
93.403000	3.963400
93.503000	0.000000
93.603000	14.174100
93.703000	15.462800
93.803000	15.073100
93.903000	14.686100
94.003000	14.814800
94.103000	15.073100
94.203000	14.557700
94.303000	15.462800
94.403000	15.593200
94.503000	15.462800
94.603000	15.462800
94.703000	15.593200
94.803000	15.332600
94.903000	15.073100
95.003000	15.202700
95.103000	15.202700
95.203000	15.462800
95.303000	15.332600
95.403000	15.593200
95.503000	15.724000
95.603000	15.462800
95.703000	15.593200
95.803000	15.332600
95.903000	15.462800
96.003000	15.593200
96.103000	15.593200
96.203000	15.202700
96.303000	15.593200
96.403000	15.855000
96.503000	15.593200
96.603000	15.724000
96.703000	15.986400
96.803000	15.724000
96.903000	15.855000
97.003000	15.986400
97.103000	15.724000
97.203000	15.855000
97.303000	15.986400
97.403000	15.855000
97.503000	15.986400
97.603000	15.986400
97.703000	15.855000
97.803000	16.118000
97.903000	16.250000
98.003000	15.986400
98.103000	16.118000
98.203000	15.986400
98.303000	14.943800
98.403000	15.202700
98.503000	15.855000
98.603000	14.943800
98.703000	16.118000
98.803000	16.118000
98.903000	16.250000
99.003000	15.986400
99.103000	15.462800
99.203000	15.986400
99.303000	15.986400
99.403000	15.724000
99.503000	15.986400
99.603000	16.118000
99.703000	16.250000
99.803000	16.382300
99.903000	16.382300
100.003000	16.250000
100.103000	16.382300
100.203000	16.382300
100.303000	16.382300
100.403000	16.382300
100.503000	16.382300
100.603000	16.382300
100.703000	15.462800
100.803000	15.986400
100.903000	14.943800
101.003000	15.073100
101.103000	14.429500
101.203000	14.686100
101.303000	15.462800
101.403000	16.250000
101.503000	16.382300
101.603000	16.382300
101.703000	16.382300
101.803000	16.382300
101.903000	16.382300
102.003000	16.382300
102.103000	16.382300
102.203000	16.382300
102.303000	16.382300
102.403000	16.382300
102.503000	16.382300
102.603000	16.250000
102.703000	16.250000
102.803000	16.250000
102.903000	16.382300
103.003000	16.382300
103.103000	16.514800
103.203000	15.332600
103.303000	16.514800
103.403000	16.780800
103.503000	17.048100
103.603000	17.048100
103.703000	17.048100
103.803000	16.780800
103.903000	14.429500
104.003000	10.954400
104.103000	16.647700
104.203000	16.647700
104.303000	16.647700
104.403000	16.647700
104.503000	16.647700
104.603000	16.647700
104.703000	16.647700
104.803000	16.647700
104.903000	16.514800
105.003000	16.647700
105.103000	16.647700
105.203000	16.647700
105.303000	16.514800
105.403000	16.514800
105.503000	16.647700
105.603000	16.514800
105.703000	16.514800
105.803000	16.647700
105.903000	16.514800
106.003000	16.514800
106.103000	16.514800
106.203000	16.514800
106.303000	16.514800
106.403000	16.514800
106.503000	16.514800
106.603000	16.514800
106.703000	16.514800
106.803000	16.514800
106.903000	16.514800
107.003000	16.514800
107.103000	16.514800
107.203000	16.514800
107.303000	16.382300
107.403000	16.514800
107.503000	16.514800
107.603000	16.382300
107.703000	16.514800
107.803000	16.382300
107.903000	16.382300
108.003000	16.382300
108.103000	16.250000
108.203000	16.382300
108.303000	16.250000
108.403000	16.382300
108.503000	16.382300
108.603000	16.250000
108.703000	16.382300
108.803000	16.250000
108.903000	15.986400
109.003000	16.250000
109.103000	16.118000
109.203000	15.724000
109.303000	16.250000
109.403000	15.855000
109.503000	15.593200
109.603000	16.118000
109.703000	15.724000
109.803000	15.332600
109.903000	15.855000
110.003000	15.462800
110.103000	15.202700
110.203000	15.593200
110.303000	15.332600
110.403000	15.073100
110.503000	15.462800
110.603000	15.202700
110.703000	15.073100
110.803000	15.202700
110.903000	15.073100
111.003000	15.332600
111.103000	15.202700
111.203000	15.073100
111.303000	15.332600
111.403000	15.202700
111.503000	15.073100
111.603000	15.332600
111.703000	15.073100
111.803000	14.814800
111.903000	14.943800
112.003000	14.814800
112.103000	14.814800
112.203000	14.943800
112.303000	14.814800
112.403000	14.686100
112.503000	14.814800
112.603000	14.686100
112.703000	14.686100
112.803000	14.686100
112.903000	14.686100
113.003000	14.557700
113.103000	14.686100
113.203000	14.557700
113.303000	14.557700
113.403000	14.557700
113.503000	14.429500
113.603000	14.429500
113.703000	14.557700
113.803000	14.429500
113.903000	14.429500
114.003000	14.429500
114.103000	14.429500
114.203000	14.429500
114.303000	14.429500
114.403000	14.301700
114.503000	14.429500
114.603000	14.429500
114.703000	14.429500
114.803000	14.429500
114.903000	14.429500
115.003000	14.429500
115.103000	14.429500
115.203000	14.301700
115.303000	14.301700
115.403000	14.429500
115.503000	14.301700
115.603000	14.301700
115.703000	14.301700
115.803000	14.301700
115.903000	14.429500
116.003000	14.046800
116.103000	14.046800
116.203000	14.046800
116.303000	14.174100
116.403000	14.301700
116.503000	14.301700
116.603000	14.301700
116.703000	14.301700
116.803000	14.301700
116.903000	14.301700
117.003000	14.301700
117.103000	14.301700
117.203000	14.301700
117.303000	14.301700
117.403000	14.301700
117.503000	14.301700
117.603000	14.301700
117.703000	14.301700
117.803000	14.301700
117.903000	14.301700
118.003000	14.301700
118.103000	14.301700
118.203000	14.301700
118.303000	14.301700
118.403000	14.301700
118.503000	14.301700
118.603000	14.301700
118.703000	14.301700
118.803000	14.301700
118.903000	14.301700
119.003000	14.301700
119.103000	14.301700
119.203000	14.301700
119.303000	14.301700
119.403000	14.301700
119.503000	14.174100
119.603000	14.301700
119.703000	14.301700
119.803000	14.301700
119.903000	14.301700
120.003000	14.301700
120.103000	14.301700
120.203000	14.429500
120.303000	14.429500
120.403000	14.429500
120.503000	14.429500
120.603000	14.429500
120.703000	14.046800
120.803000	14.429500
120.903000	14.429500
121.003000	14.301700
121.103000	14.557700
121.203000	14.557700
121.303000	14.557700
121.403000	14.686100
121.503000	14.557700
121.603000	14.686100
121.703000	14.814800
121.803000	14.557700
121.903000	14.686100
122.003000	14.943800
122.103000	14.686100
122.203000	14.814800
122.303000	14.943800
122.403000	14.814800
122.503000	14.943800
122.603000	15.073100
122.703000	14.814800
122.803000	15.073100
122.903000	15.202700
123.003000	14.943800
123.103000	15.073100
123.203000	15.332600
123.303000	15.073100
123.403000	15.073100
123.503000	14.943800
123.603000	14.814800
123.703000	15.073100
123.803000	14.301700
123.903000	15.202700
124.003000	15.462800
124.103000	15.202700
124.203000	15.332600
124.303000	15.593200
124.403000	15.332600
124.503000	15.202700
124.603000	15.462800
124.703000	15.332600
124.803000	15.462800
124.903000	15.593200
125.003000	15.462800
125.103000	15.462800
125.203000	15.593200
125.303000	15.462800
125.403000	15.462800
125.503000	15.462800
125.603000	14.814800
125.703000	12.048200
125.803000	15.073100
125.903000	9.881800
126.003000	15.073100
126.103000	15.202700
126.203000	1.488100
126.303000	5.138700
126.403000	15.724000
126.503000	13.038700
126.603000	15.462800
126.703000	15.462800
126.803000	15.332600
126.903000	15.332600
127.003000	15.202700
127.103000	15.202700
127.203000	15.332600
127.303000	15.202700
127.403000	15.332600
127.503000	15.202700
127.603000	15.202700
127.703000	15.332600
127.803000	15.202700
127.903000	15.202700
128.003000	15.202700
128.103000	15.202700
128.203000	15.202700
128.303000	14.429500
128.403000	13.793100
128.503000	13.919800
128.603000	13.163700
128.703000	14.943800
128.803000	14.814800
128.903000	15.073100
129.003000	15.073100
129.103000	15.073100
129.203000	14.943800
129.303000	15.073100
129.403000	15.073100
129.503000	4.387800
129.603000	15.462800
129.703000	15.332600
129.803000	15.462800
129.903000	15.202700
130.003000	15.202700
130.103000	15.073100
130.203000	15.073100
130.303000	15.073100
130.403000	14.943800
130.503000	15.073100
130.603000	14.943800
130.703000	14.686100
130.803000	1.994000
130.903000	15.202700
131.003000	14.686100
131.103000	12.541300
131.203000	14.557700
131.303000	12.913900
131.403000	13.919800
131.503000	13.414600
131.603000	13.163700
131.703000	13.540500
131.803000	13.289000
131.903000	12.913900
132.003000	13.163700
132.103000	12.913900
132.203000	12.913900
132.303000	13.038700
132.403000	12.913900
132.503000	12.913900
132.603000	13.038700
132.703000	12.913900
132.803000	11.925600
132.903000	10.237100
133.003000	11.925600
133.103000	13.540500
133.203000	13.666700
133.303000	13.540500
133.403000	13.666700
133.503000	13.666700
133.603000	13.540500
133.703000	13.540500
133.803000	13.414600
133.903000	13.414600
134.003000	13.414600
134.103000	13.414600
134.203000	13.414600
134.303000	13.414600
134.403000	13.414600
134.503000	13.414600
134.603000	13.414600
134.703000	13.414600
134.803000	13.414600
134.903000	13.414600
135.003000	13.414600
135.103000	13.414600
135.203000	13.414600
135.303000	13.414600
135.403000	13.414600
135.503000	13.414600
135.603000	13.540500
135.703000	13.540500
135.803000	13.540500
135.903000	13.540500
136.003000	13.666700
136.103000	13.540500
136.203000	13.666700
136.303000	13.666700
136.403000	13.666700
136.503000	13.666700
136.603000	13.666700
136.703000	13.666700
136.803000	13.793100
136.903000	13.666700
137.003000	13.793100
137.103000	14.046800
137.203000	13.793100
137.303000	14.046800
137.403000	14.174100
137.503000	14.046800
137.603000	14.174100
137.703000	14.429500
137.803000	14.301700
137.903000	14.429500
138.003000	14.557700
138.103000	14.429500
138.203000	14.557700
138.303000	14.557700
138.403000	14.557700
138.503000	14.557700
138.603000	14.814800
138.703000	14.686100
138.803000	14.814800
138.903000	14.814800
139.003000	14.814800
139.103000	14.814800
139.203000	14.686100
139.303000	13.666700
139.403000	13.289000
139.503000	13.919800
139.603000	15.462800
139.703000	15.202700
139.803000	15.462800
139.903000	15.593200
140.003000	15.593200
140.103000	15.593200
140.203000	15.462800
140.303000	15.462800
140.403000	15.073100
140.503000	15.462800
140.603000	15.462800
140.703000	15.462800
140.803000	15.462800
140.903000	15.332600
141.003000	15.462800
141.103000	15.332600
141.203000	15.332600
141.303000	15.332600
141.403000	15.462800
141.503000	15.462800
141.603000	15.462800
141.703000	15.332600
141.803000	14.943800
141.903000	15.202700
142.003000	14.174100
142.103000	12.048200
142.203000	12.048200
142.303000	11.803300
142.403000	12.048200
142.503000	13.038700
142.603000	13.666700
142.703000	13.666700
142.803000	13.793100
142.903000	13.540500
143.003000	13.666700
143.103000	13.414600
143.203000	13.289000
143.303000	13.289000
143.403000	13.163700
143.503000	13.038700
143.603000	13.163700
143.703000	13.038700
143.803000	13.163700
143.903000	13.289000
144.003000	13.289000
144.103000	13.414600
144.203000	12.417600
144.303000	13.793100
144.403000	13.793100
144.503000	13.793100
144.603000	14.046800
144.703000	0.491200
144.803000	14.429500
144.903000	14.686100
145.003000	9.411800
145.103000	14.943800
145.203000	14.943800
145.303000	14.943800
145.403000	14.943800
145.503000	14.943800
145.603000	10.118400
145.703000	15.073100
145.803000	15.073100
145.903000	15.073100
146.003000	14.943800
146.103000	15.073100
146.203000	14.943800
146.303000	14.943800
146.403000	13.919800
146.503000	5.900600
146.603000	15.073100
146.703000	2.607800
146.803000	5.681800
146.903000	15.332600
147.003000	15.332600
147.103000	15.073100
147.203000	15.202700
147.303000	15.462800
147.403000	15.202700
147.503000	15.462800
147.603000	15.593200
147.703000	15.462800
147.803000	15.593200
147.903000	15.855000
148.003000	15.073100
148.103000	14.557700
148.203000	15.855000
148.303000	15.593200
148.403000	8.254000
148.503000	14.814800
148.603000	15.462800
148.703000	15.332600
148.803000	15.593200
148.903000	15.462800
149.003000	15.724000
149.103000	15.724000
149.203000	15.855000
149.303000	15.986400
149.403000	15.855000
149.503000	15.986400
149.603000	15.855000
149.703000	15.593200
149.803000	14.686100
149.903000	15.724000
150.003000	15.855000
150.103000	16.118000
150.203000	15.462800
150.303000	16.250000
150.403000	16.118000
150.503000	15.202700
150.603000	14.301700
150.703000	14.557700
150.803000	14.046800
150.903000	15.986400
151.003000	16.250000
151.103000	15.986400
151.203000	15.986400
151.303000	15.855000
151.403000	15.986400
151.503000	15.855000
151.603000	15.986400
151.703000	16.118000
151.803000	16.118000
151.903000	16.118000
152.003000	15.986400
152.103000	16.118000
152.203000	15.855000
152.303000	15.462800
152.403000	15.855000
152.503000	14.301700
152.603000	15.855000
152.703000	15.462800
152.803000	15.073100
152.903000	15.462800
153.003000	14.943800
153.103000	14.557700
153.203000	14.686100
153.303000	14.557700
153.403000	14.301700
153.503000	14.557700
153.603000	14.429500
153.703000	14.301700
153.803000	14.429500
153.903000	14.301700
154.003000	14.301700
154.103000	14.301700
154.203000	14.301700
154.303000	14.429500
154.403000	14.557700
154.503000	14.557700
154.603000	14.557700
154.703000	14.557700
154.803000	14.301700
154.903000	1.287100
155.003000	14.557700
155.103000	14.429500
155.203000	14.174100
155.303000	14.046800
155.403000	14.046800
155.503000	14.046800
155.603000	14.046800
155.703000	14.046800
155.803000	14.046800
155.903000	14.046800
156.003000	14.046800
156.103000	14.046800
156.203000	14.046800
156.303000	14.046800
156.403000	11.681200
156.503000	14.301700
156.603000	14.174100
156.703000	14.174100
156.803000	14.046800
156.903000	14.046800
157.003000	14.046800
157.103000	14.046800
157.203000	14.046800
157.303000	14.046800
157.403000	14.174100
157.503000	14.174100
157.603000	14.174100
157.703000	14.174100
157.803000	14.429500
157.903000	14.174100
158.003000	14.429500
158.103000	14.557700
158.203000	14.301700
158.303000	14.557700
158.403000	14.686100
158.503000	14.557700
158.603000	14.686100
158.703000	14.943800
158.803000	14.686100
158.903000	14.943800
159.003000	14.686100
159.103000	14.943800
159.203000	15.073100
159.303000	14.943800
159.403000	15.073100
159.503000	15.202700
159.603000	15.202700
159.703000	15.332600
159.803000	15.462800
159.903000	15.332600
160.003000	15.332600
160.103000	15.202700
160.203000	15.073100
160.303000	15.202700
160.403000	15.332600
160.503000	15.462800
160.603000	14.814800
160.703000	15.593200
160.803000	15.593200
160.903000	15.462800
161.003000	15.593200
161.103000	15.462800
161.203000	15.462800
161.303000	15.593200
161.403000	15.593200
161.503000	15.593200
161.603000	15.593200
161.703000	15.593200
161.803000	15.724000
161.903000	15.593200
162.003000	15.593200
162.103000	15.986400
162.203000	16.118000
162.303000	16.118000
162.403000	16.118000
162.503000	16.118000
162.603000	16.118000
162.703000	16.118000
162.803000	15.855000
162.903000	15.855000
163.003000	15.724000
163.103000	15.724000
163.203000	15.724000
163.303000	15.593200
163.403000	15.724000
163.503000	15.593200
163.603000	15.462800
163.703000	15.462800
163.803000	15.593200
163.903000	15.593200
164.003000	15.593200
164.103000	15.462800
164.203000	15.593200
164.303000	15.462800
164.403000	15.593200
164.503000	15.593200
164.603000	15.593200
164.703000	15.593200
164.803000	15.593200
164.903000	15.593200
165.003000	15.593200
165.103000	15.462800
165.203000	15.593200
165.303000	15.593200
165.403000	15.593200
165.503000	15.462800
165.603000	15.462800
165.703000	15.724000
165.803000	15.593200
165.903000	15.332600
166.003000	15.724000
166.103000	15.462800
166.203000	15.202700
166.303000	15.724000
166.403000	15.332600
166.503000	15.073100
166.603000	15.593200
166.703000	15.202700
166.803000	14.943800
166.903000	15.332600
167.003000	15.073100
167.103000	14.814800
167.203000	15.202700
167.303000	14.943800
167.403000	14.814800
167.503000	14.943800
167.603000	14.814800
167.703000	14.686100
167.803000	14.943800
167.903000	14.686100
168.003000	14.557700
168.103000	14.686100
168.203000	14.557700
168.303000	14.429500
168.403000	14.557700
168.503000	14.429500
168.603000	14.557700
168.703000	14.429500
168.803000	14.301700
168.903000	14.429500
169.003000	14.429500
169.103000	14.301700
169.203000	14.429500
169.303000	14.301700
169.403000	14.301700
169.503000	14.429500
169.603000	14.814800
169.703000	14.814800
169.803000	14.943800
169.903000	14.814800
170.003000	14.814800
170.103000	14.814800
170.203000	14.557700
170.303000	14.557700
170.403000	14.686100
170.503000	14.686100
170.603000	14.686100
170.703000	14.686100
170.803000	14.686100
170.903000	14.557700
171.003000	14.686100
171.103000	14.557700
171.203000	14.557700
171.303000	14.557700
171.403000	14.557700
171.503000	14.557700
171.603000	14.557700
171.703000	14.557700
171.803000	14.557700
171.903000	14.557700
172.003000	14.557700
172.103000	14.557700
172.203000	14.429500
172.303000	14.429500
172.403000	14.557700
172.503000	14.429500
172.603000	14.429500
172.703000	14.429500
172.803000	14.557700
172.903000	13.163700
173.003000	5.900600
173.103000	4.281300
173.203000	8.598700
173.303000	14.174100
173.403000	14.943800
173.503000	14.814800
173.603000	14.686100
173.703000	14.686100
173.803000	14.686100
173.903000	14.557700
174.003000	14.557700
174.103000	14.557700
174.203000	14.557700
174.303000	14.557700
174.403000	14.557700
174.503000	14.557700
174.603000	14.557700
174.703000	14.429500
174.803000	14.429500
174.903000	14.429500
175.003000	14.429500
175.103000	14.429500
175.203000	14.429500
175.303000	14.429500
175.403000	14.429500
175.503000	14.429500
175.603000	14.429500
175.703000	14.429500
175.803000	14.429500
175.903000	14.429500
176.003000	14.429500
176.103000	14.429500
176.203000	14.429500
176.303000	14.429500
176.403000	14.429500
176.503000	14.557700
176.603000	14.429500
176.703000	14.429500
176.803000	14.429500
176.903000	14.429500
177.003000	14.429500
177.103000	14.429500
177.203000	14.429500
177.303000	1.387500
177.403000	14.557700
177.503000	14.557700
177.603000	14.429500
177.703000	14.429500
177.803000	14.429500
177.903000	14.429500
178.003000	14.429500
178.103000	14.429500
178.203000	14.429500
178.303000	14.429500
178.403000	14.046800
178.503000	3.857900
178.603000	12.294200
178.703000	0.000000
178.803000	0.000000
178.903000	14.429500
179.003000	14.814800
179.103000	14.686100
179.203000	14.557700
179.303000	14.557700
179.403000	14.429500
179.503000	14.429500
179.603000	14.429500
179.703000	14.429500
179.803000	14.301700
179.903000	14.429500
180.003000	14.301700
180.103000	14.301700
180.203000	14.301700
180.303000	14.301700
180.403000	14.301700
180.503000	14.429500
180.603000	14.301700
180.703000	14.301700
180.803000	14.429500
180.903000	14.301700
181.003000	14.301700
181.103000	14.557700
181.203000	14.301700
181.303000	14.429500
181.403000	14.301700
181.503000	14.429500
181.603000	14.557700
181.703000	14.429500
181.803000	14.429500
181.903000	14.686100
182.003000	14.429500
182.103000	14.557700
182.203000	14.814800
182.303000	14.557700
182.403000	14.686100
182.503000	14.814800
182.603000	14.557700
182.703000	14.814800
182.803000	14.943800
182.903000	14.686100
183.003000	14.814800
183.103000	15.073100
183.203000	14.814800
183.303000	14.943800
183.403000	15.073100
183.503000	14.814800
183.603000	14.943800
183.703000	15.073100
183.803000	14.814800
183.903000	15.073100
184.003000	15.202700
184.103000	14.943800
184.203000	15.073100
184.303000	15.332600
184.403000	15.073100
184.503000	15.202700
184.603000	14.943800
184.703000	15.073100
184.803000	15.202700
184.903000	15.073100
185.003000	15.202700
185.103000	15.332600
185.203000	15.073100
185.303000	15.202700
185.403000	15.332600
185.503000	15.202700
185.603000	15.332600
185.703000	15.332600
185.803000	15.202700
185.903000	15.332600
186.003000	15.462800
186.103000	15.332600
186.203000	15.332600
186.303000	15.462800
186.403000	15.332600
186.503000	15.462800
186.603000	15.462800
186.703000	15.332600
186.803000	15.332600
186.903000	15.462800
187.003000	15.202700
187.103000	15.462800
187.203000	15.462800
187.303000	12.541300
187.403000	15.332600
187.503000	15.462800
187.603000	15.202700
187.703000	15.202700
187.803000	15.202700
187.903000	15.332600
188.003000	15.202700
188.103000	15.073100
188.203000	15.202700
188.303000	15.202700
188.403000	15.073100
188.503000	15.202700
188.603000	15.073100
188.703000	15.073100
188.803000	15.202700
188.903000	15.332600
189.003000	15.202700
189.103000	15.202700
189.203000	15.073100
189.303000	15.202700
189.403000	15.332600
189.503000	15.332600
189.603000	15.202700
189.703000	15.332600
189.803000	15.332600
189.903000	15.202700
190.003000	15.202700
190.103000	15.332600
190.203000	15.202700
190.303000	15.332600
190.403000	15.332600
190.503000	15.332600
190.603000	15.332600
190.703000	15.332600
190.803000	15.332600
190.903000	15.332600
191.003000	15.202700
191.103000	15.202700
191.203000	15.202700
191.303000	15.202700
191.403000	15.202700
191.503000	15.202700
191.603000	15.202700
191.703000	15.202700
191.803000	15.202700
191.903000	15.202700
192.003000	15.202700
192.103000	15.202700
192.203000	15.202700
192.303000	15.202700
192.403000	15.202700
192.503000	15.202700
192.603000	15.073100
192.703000	15.073100
192.803000	15.073100
192.903000	15.073100
193.003000	15.073100
193.103000	15.073100
193.203000	15.073100
193.303000	15.073100
193.403000	15.073100
193.503000	15.073100
193.603000	15.073100
193.703000	15.073100
193.803000	15.073100
193.903000	15.073100
194.003000	15.073100
194.103000	15.073100
194.203000	15.073100
194.303000	15.073100
194.403000	15.073100
194.503000	15.073100
194.603000	15.073100
194.703000	15.073100
194.803000	15.073100
194.903000	15.073100
195.003000	15.073100
195.103000	15.073100
195.203000	15.073100
195.303000	15.073100
195.403000	15.073100
195.503000	15.073100
195.603000	15.202700
195.703000	15.073100
195.803000	15.073100
195.903000	15.073100
196.003000	15.073100
196.103000	15.073100
196.203000	15.073100
196.303000	15.073100
196.403000	15.073100
196.503000	14.943800
196.603000	15.073100
196.703000	15.073100
196.803000	14.814800
196.903000	15.073100
197.003000	14.943800
197.103000	14.686100
197.203000	14.943800
197.303000	14.814800
197.403000	14.943800
197.503000	14.814800
197.603000	14.557700
197.703000	14.943800
197.803000	14.814800
197.903000	14.429500
198.003000	14.814800
198.103000	14.557700
198.203000	14.174100
198.303000	14.686100
198.403000	14.301700
198.503000	13.919800
198.603000	14.429500
198.703000	14.174100
198.803000	13.919800
198.903000	14.301700
199.003000	13.919800
199.103000	13.793100
199.203000	14.046800
199.303000	13.666700
199.403000	13.540500
199.503000	13.666700
199.603000	13.666700
199.703000	13.540500
199.803000	13.666700
199.903000	13.540500
200.003000	13.414600
200.103000	13.666700
200.203000	13.414600
200.303000	13.289000
200.403000	13.540500
200.503000	13.289000
200.603000	13.540500
200.703000	13.414600
200.803000	13.289000
200.903000	13.414600
201.003000	13.289000
201.103000	13.289000
201.203000	13.289000
201.303000	13.289000
201.403000	13.163700
201.503000	13.289000
201.603000	13.163700
201.703000	13.163700
201.803000	13.289000
201.903000	13.163700
202.003000	13.540500
202.103000	13.666700
202.203000	13.666700
202.303000	13.163700
202.403000	12.913900
202.503000	12.913900
202.603000	11.316600
202.703000	11.803300
202.803000	13.038700
202.903000	13.038700
203.003000	12.789400
203.103000	12.541300
203.203000	12.541300
203.303000	12.541300
203.403000	12.541300
203.503000	12.541300
203.603000	12.789400
203.703000	12.789400
203.803000	12.913900
203.903000	12.913900
204.003000	13.038700
204.103000	13.163700
204.203000	11.925600
204.303000	10.954400
204.403000	10.714300
204.503000	12.789400
204.603000	13.793100
204.703000	14.046800
204.803000	14.301700
204.903000	14.301700
205.003000	14.429500
205.103000	14.557700
205.203000	14.686100
205.303000	14.814800
205.403000	14.814800
205.503000	14.943800
205.603000	14.943800
205.703000	14.943800
205.803000	14.943800
205.903000	14.814800
206.003000	13.793100
206.103000	14.301700
206.203000	15.202700
206.303000	14.943800
206.403000	14.046800
206.503000	14.301700
206.603000	14.814800
206.703000	13.289000
206.803000	13.163700
206.903000	14.046800
207.003000	13.289000
207.103000	13.666700
207.203000	15.202700
207.303000	15.332600
207.403000	15.332600
207.503000	15.332600
207.603000	14.686100
207.703000	15.332600
207.803000	15.202700
207.903000	14.943800
208.003000	14.814800
208.103000	15.202700
208.203000	15.073100
208.303000	15.073100
208.403000	15.073100
208.503000	15.073100
208.603000	15.073100
208.703000	15.073100
208.803000	15.073100
208.903000	15.073100
209.003000	14.686100
209.103000	14.557700
209.203000	14.814800
209.303000	14.943800
209.403000	14.943800
209.503000	14.429500
209.603000	14.943800
209.703000	14.943800
209.803000	14.943800
209.903000	14.943800
210.003000	14.943800
210.103000	14.943800
210.203000	14.943800
210.303000	14.943800
210.403000	14.943800
210.503000	14.301700
210.603000	15.073100
210.703000	14.943800
210.803000	12.048200
210.903000	13.666700
211.003000	9.411800
211.103000	14.943800
211.203000	15.073100
211.303000	15.202700
211.403000	15.073100
211.503000	15.202700
211.603000	15.073100
211.703000	14.943800
211.803000	13.919800
211.903000	15.073100
212.003000	14.686100
212.103000	14.686100
212.203000	13.919800
212.303000	15.073100
212.403000	15.073100
212.503000	15.202700
212.603000	15.073100
212.703000	15.202700
212.803000	15.332600
212.903000	14.943800
213.003000	14.943800
213.103000	15.332600
213.203000	15.202700
213.303000	15.332600
213.403000	14.814800
213.503000	15.202700
213.603000	15.202700
213.703000	14.686100
213.803000	15.202700
213.903000	15.332600
214.003000	15.202700
214.103000	15.332600
214.203000	15.462800
214.303000	15.202700
214.403000	15.332600
214.503000	15.462800
214.603000	15.332600
214.703000	15.332600
214.803000	15.593200
214.903000	15.332600
215.003000	15.462800
215.103000	15.593200
215.203000	15.462800
215.303000	15.593200
215.403000	15.724000
215.503000	15.462800
215.603000	15.593200
215.703000	15.724000
215.803000	15.462800
215.903000	15.724000
216.003000	15.855000
216.103000	15.593200
216.203000	15.724000
216.303000	15.855000
216.403000	15.724000
216.503000	15.855000
216.603000	15.593200
216.703000	15.724000
216.803000	15.855000
216.903000	15.724000
217.003000	15.855000
217.103000	15.986400
217.203000	15.724000
217.303000	15.855000
217.403000	15.986400
217.503000	15.855000
217.603000	15.855000
217.703000	15.986400
217.803000	15.855000
217.903000	15.986400
218.003000	15.986400
218.103000	15.855000
218.203000	15.724000
218.303000	15.855000
218.403000	15.724000
218.503000	15.724000
218.603000	15.593200
218.703000	15.332600
218.803000	15.593200
218.903000	15.593200
219.003000	15.593200
219.103000	15.855000
219.203000	15.593200
219.303000	16.250000
219.403000	16.647700
219.503000	16.780800
219.603000	16.780800
219.703000	16.914300
219.803000	16.914300
219.903000	16.914300
220.003000	16.914300
220.103000	16.914300
220.203000	17.048100
220.303000	17.182100
220.403000	17.182100
220.503000	17.182100
220.603000	17.182100
220.703000	15.986400
220.803000	17.586200
220.903000	17.586200
221.003000	17.586200
221.103000	17.182100
221.203000	17.316500
221.303000	17.451200
221.403000	17.451200
221.503000	17.316500
221.603000	16.780800
221.703000	17.316500
221.803000	17.451200
221.903000	17.586200
222.003000	17.451200
222.103000	17.451200
222.203000	17.182100
222.303000	17.316500
222.403000	17.316500
222.503000	17.316500
222.603000	17.182100
222.703000	17.182100
222.803000	17.048100
222.903000	17.182100
223.003000	17.451200
223.103000	17.451200
223.203000	17.451200
223.303000	17.316500
223.403000	17.451200
223.503000	16.914300
223.603000	16.647700
223.703000	16.647700
223.803000	16.647700
223.903000	15.986400
224.003000	15.462800
224.103000	16.514800
224.203000	16.914300
224.303000	14.814800
224.403000	17.048100
224.503000	16.382300
224.603000	17.048100
224.703000	17.048100
224.803000	17.182100
224.903000	17.182100
225.003000	17.048100
225.103000	17.182100
225.203000	17.048100
225.303000	17.182100
225.403000	17.182100
225.503000	17.182100
225.603000	17.182100
225.703000	17.182100
225.803000	17.048100
225.903000	17.182100
226.003000	17.048100
226.103000	17.182100
226.203000	17.182100
226.303000	17.182100
226.403000	17.182100
226.503000	17.182100
226.603000	17.182100
226.703000	17.182100
226.803000	17.182100
226.903000	17.182100
227.003000	17.182100
227.103000	17.048100
227.203000	17.182100
227.303000	17.048100
227.403000	17.048100
227.503000	17.048100
227.603000	17.048100
227.703000	17.048100
227.803000	17.048100
227.903000	16.914300
228.003000	16.914300
228.103000	17.048100
228.203000	16.914300
228.303000	17.316500
228.403000	17.048100
228.503000	16.780800
228.603000	17.182100
228.703000	16.914300
228.803000	16.382300
228.903000	16.647700
229.003000	16.382300
229.103000	15.986400
229.203000	16.514800
229.303000	16.250000
229.403000	16.780800
229.503000	16.382300
229.603000	16.118000
229.703000	16.514800
229.803000	16.250000
229.903000	15.986400
230.003000	16.382300
230.103000	16.118000
230.203000	15.855000
230.303000	16.250000
230.403000	15.986400
230.503000	15.724000
230.603000	15.986400
230.703000	15.855000
230.803000	15.724000
230.903000	15.986400
231.003000	15.724000
231.103000	15.593200
231.203000	15.724000
231.303000	15.593200
231.403000	15.462800
231.503000	15.724000
231.603000	15.462800
231.703000	15.462800
231.803000	15.593200
231.903000	15.462800
232.003000	15.332600
232.103000	15.462800
232.203000	15.332600
232.303000	15.332600
232.403000	15.462800
232.503000	15.332600
232.603000	15.462800
232.703000	15.332600
232.803000	15.202700
232.903000	15.332600
233.003000	15.202700
233.103000	15.073100
233.203000	15.202700
233.303000	15.202700
233.403000	15.073100
233.503000	15.202700
233.603000	15.202700
233.703000	15.073100
233.803000	15.202700
233.903000	15.073100
234.003000	15.073100
234.103000	15.202700
234.203000	15.073100
234.303000	15.073100
234.403000	15.073100
234.503000	15.073100
234.603000	15.073100
234.703000	15.073100
234.803000	15.073100
234.903000	15.073100
235.003000	15.073100
235.103000	15.073100
235.203000	15.073100
235.303000	14.943800
235.403000	15.073100
235.503000	14.943800
235.603000	14.943800
235.703000	14.943800
235.803000	14.943800
235.903000	14.943800
236.003000	14.943800
236.103000	14.943800
236.203000	14.943800
236.303000	15.073100
236.403000	15.202700
236.503000	15.073100
236.603000	14.814800
236.703000	14.686100
236.803000	14.429500
236.903000	14.429500
237.003000	14.557700
237.103000	14.557700
237.203000	14.557700
237.303000	14.557700
237.403000	14.557700
237.503000	14.557700
237.603000	14.557700
237.703000	14.557700
237.803000	14.557700
237.903000	14.557700
238.003000	14.557700
238.103000	14.557700
238.203000	14.557700
238.303000	14.686100
238.403000	15.073100
238.503000	15.073100
238.603000	15.073100
238.703000	15.073100
238.803000	15.073100
238.903000	15.073100
239.003000	15.073100
239.103000	15.202700
239.203000	15.073100
239.303000	15.073100
239.403000	15.073100
239.503000	15.202700
239.603000	15.073100
239.703000	15.202700
239.803000	15.202700
239.903000	15.202700
240.003000	15.332600
240.103000	15.332600
240.203000	15.332600
240.303000	15.462800
240.403000	15.593200
240.503000	15.462800
240.603000	15.593200
240.703000	15.593200
240.803000	15.593200
240.903000	15.724000
241.003000	15.724000
241.103000	15.202700
241.203000	14.943800
241.303000	15.593200
241.403000	14.943800
241.503000	15.332600
241.603000	16.118000
241.703000	15.986400
241.803000	15.986400
241.903000	16.118000
242.003000	15.986400
242.103000	15.986400
242.203000	15.855000
242.303000	15.986400
242.403000	16.118000
242.503000	15.855000
242.603000	15.986400
242.703000	16.118000
242.803000	15.986400
242.903000	16.118000
243.003000	16.250000
243.103000	16.250000
243.203000	16.382300
243.303000	16.514800
243.403000	16.250000
243.503000	14.943800
243.603000	16.250000
243.703000	16.514800
243.803000	16.647700
243.903000	17.048100
244.003000	16.914300
244.103000	17.316500
244.203000	17.586200
244.303000	17.451200
244.403000	17.857100
244.503000	18.265900
244.603000	18.129300
244.703000	18.540000
244.803000	18.815300
244.903000	18.677500
245.003000	18.953500
245.103000	19.092000
245.203000	19.092000
245.303000	19.369900
245.403000	19.230800
245.503000	19.509300
245.603000	19.789200
245.703000	19.649100
245.803000	19.929700
245.903000	20.070400
246.003000	19.929700
246.103000	20.070400
246.203000	20.211500
246.303000	20.070400
246.403000	20.211500
246.503000	20.494700
246.603000	20.494700
246.703000	20.636800
246.803000	20.779200
246.903000	20.636800
247.003000	20.779200
247.103000	20.779200
247.203000	20.779200
247.303000	20.779200
247.403000	20.779200
247.503000	20.779200
247.603000	20.779200
247.703000	20.779200
247.803000	20.636800
247.903000	20.779200
248.003000	20.779200
248.103000	20.779200
248.203000	20.779200
248.303000	20.922000
248.403000	20.922000
248.503000	20.922000
248.603000	20.922000
248.703000	20.922000
248.803000	20.922000
248.903000	20.779200
249.003000	20.922000
249.103000	20.922000
249.203000	20.779200
249.303000	20.922000
249.403000	20.922000
249.503000	20.779200
249.603000	20.779200
249.703000	20.922000
249.803000	20.779200
249.903000	20.779200
250.003000	20.779200
250.103000	20.779200
250.203000	20.779200
250.303000	20.779200
250.403000	20.636800
250.503000	20.779200
250.603000	20.636800
250.703000	20.636800
250.803000	20.636800
250.903000	20.636800
251.003000	20.636800
251.103000	20.636800
251.203000	20.636800
251.303000	20.636800
251.403000	20.636800
251.503000	20.636800
251.603000	20.636800
251.703000	20.636800
251.803000	20.779200
251.903000	20.779200
252.003000	20.779200
252.103000	20.779200
252.203000	20.779200
252.303000	20.779200
252.403000	20.779200
252.503000	20.922000
252.603000	21.065100
252.703000	21.352300
252.803000	21.352300
252.903000	21.208500
253.003000	20.779200
253.103000	20.779200
253.203000	20.494700
253.303000	20.636800
253.403000	20.494700
253.503000	20.636800
253.603000	20.636800
253.703000	20.636800
253.803000	20.494700
253.903000	20.636800
254.003000	20.636800
254.103000	20.636800
254.203000	20.636800
254.303000	20.636800
254.403000	20.779200
254.503000	20.779200
254.603000	20.779200
254.703000	20.922000
254.803000	20.922000
254.903000	21.065100
255.003000	20.922000
255.103000	21.065100
255.203000	21.208500
255.303000	21.208500
255.403000	21.208500
255.503000	21.352300
255.603000	21.352300
255.703000	21.496400
255.803000	21.496400
255.903000	21.496400
256.003000	21.496400
256.103000	21.496400
256.203000	21.496400
256.303000	21.496400
256.403000	21.352300
256.503000	21.496400
256.603000	21.496400
256.703000	21.208500
256.803000	21.496400
256.903000	21.352300
257.003000	20.922000
257.103000	21.352300
257.203000	21.065100
257.303000	20.636800
257.403000	21.208500
257.503000	20.922000
257.603000	20.352900
257.703000	21.065100
257.803000	20.636800
257.903000	20.211500
258.003000	20.779200
258.103000	20.352900
258.203000	20.922000
258.303000	20.494700
258.403000	20.211500
258.503000	20.636800
258.603000	20.211500
258.703000	20.070400
258.803000	20.494700
258.903000	20.070400
259.003000	19.929700
259.103000	20.211500
259.203000	19.929700
259.303000	19.789200
259.403000	20.070400
259.503000	19.789200
259.603000	19.789200
259.703000	19.929700
259.803000	19.789200
259.903000	19.649100
260.003000	19.929700
260.103000	19.789200
260.203000	19.509300
260.303000	19.789200
260.403000	19.649100
260.503000	19.509300
260.603000	19.649100
260.703000	19.509300
260.803000	19.369900
260.903000	19.509300
261.003000	19.649100
261.103000	19.509300
261.203000	19.649100
261.303000	19.509300
261.403000	19.509300
261.503000	19.509300
261.603000	19.369900
261.703000	19.509300
261.803000	19.369900
261.903000	19.369900
262.003000	19.369900
262.103000	19.369900
262.203000	19.230800
262.303000	19.369900
262.403000	19.230800
262.503000	19.230800
262.603000	19.230800
262.703000	19.230800
262.803000	19.230800
262.903000	19.230800
263.003000	19.230800
263.103000	19.230800
263.203000	19.230800
263.303000	19.230800
263.403000	19.230800
263.503000	19.230800
263.603000	19.230800
263.703000	19.230800
263.803000	19.230800
263.903000	19.092000
264.003000	19.230800
264.103000	19.230800
264.203000	19.230800
264.303000	19.230800
264.403000	19.230800
264.503000	19.230800
264.603000	19.230800
264.703000	17.993100
264.803000	19.509300
264.903000	19.649100
265.003000	19.509300
265.103000	19.369900
265.203000	19.369900
265.303000	19.369900
265.403000	19.369900
265.503000	19.369900
265.603000	19.092000
265.703000	19.092000
265.803000	19.369900
265.903000	19.369900
266.003000	19.369900
266.103000	19.369900
266.203000	19.369900
266.303000	19.369900
266.403000	19.369900
266.503000	19.369900
266.603000	19.369900
266.703000	19.369900
266.803000	19.369900
266.903000	19.369900
267.003000	19.230800
267.103000	19.509300
267.203000	19.509300
267.303000	19.509300
267.403000	17.857100
267.503000	16.914300
267.603000	18.677500
267.703000	18.953500
267.803000	19.230800
267.903000	19.230800
268.003000	20.070400
268.103000	17.586200
268.203000	20.352900
268.303000	20.352900
268.403000	20.494700
268.503000	20.494700
268.603000	20.494700
268.703000	20.494700
268.803000	20.636800
268.903000	20.636800
269.003000	20.636800
269.103000	19.230800
269.203000	18.402800
269.303000	20.494700
269.403000	20.070400
269.503000	20.922000
269.603000	20.922000
269.703000	20.922000
269.803000	20.922000
269.903000	20.922000
270.003000	20.922000
270.103000	20.922000
270.203000	20.922000
270.303000	20.922000
270.403000	21.065100
270.503000	21.065100
270.603000	21.065100
270.703000	21.065100
270.803000	21.065100
270.903000	20.494700
271.003000	21.208500
271.103000	21.352300
271.203000	21.352300
271.303000	21.352300
271.403000	21.352300
271.503000	21.496400
271.603000	21.352300
271.703000	21.352300
271.803000	21.496400
271.903000	21.352300
272.003000	21.496400
272.103000	21.496400
272.203000	21.352300
272.303000	21.496400
272.403000	21.640900
272.503000	21.352300
272.603000	21.496400
272.703000	21.640900
272.803000	21.352300
272.903000	21.640900
273.003000	21.785700
273.103000	21.496400
273.203000	21.785700
273.303000	21.930900
273.403000	21.785700
273.503000	21.930900
273.603000	22.076400
273.703000	17.586200
273.803000	21.930900
273.903000	22.515000
274.003000	22.222200
274.103000	22.368400
274.203000	21.640900
274.303000	22.222200
274.403000	22.515000
274.503000	22.222200
274.603000	21.640900
274.703000	22.222200
274.803000	21.496400
274.903000	21.785700
275.003000	21.930900
275.103000	21.785700
275.203000	21.930900
275.303000	22.076400
275.403000	21.785700
275.503000	21.930900
275.603000	22.076400
275.703000	21.930900
275.803000	22.076400
275.903000	22.076400
276.003000	21.930900
276.103000	22.076400
276.203000	22.222200
276.303000	22.076400
276.403000	22.222200
276.503000	22.222200
276.603000	22.076400
276.703000	22.222200
276.803000	22.368400
276.903000	22.222200
277.003000	22.222200
277.103000	22.368400
277.203000	22.222200
277.303000	22.222200
277.403000	22.076400
277.503000	22.222200
277.603000	22.368400
277.703000	22.076400
277.803000	22.222200
277.903000	22.368400
278.003000	22.222200
278.103000	22.222200
278.203000	22.222200
278.303000	22.222200
278.403000	22.222200
278.503000	22.368400
278.603000	22.222200
278.703000	22.368400
278.803000	22.368400
278.903000	22.368400
279.003000	22.368400
279.103000	22.368400
279.203000	22.368400
279.303000	22.368400
279.403000	22.368400
279.503000	22.368400
279.603000	22.368400
279.703000	22.368400
279.803000	22.368400
279.903000	22.368400
280.003000	20.070400
280.103000	22.956700
280.203000	21.930900
280.303000	23.253000
280.403000	23.253000
280.503000	23.253000
280.603000	21.930900
280.703000	23.253000
280.803000	23.104700
280.903000	22.956700
281.003000	23.700100
281.103000	23.401700
281.203000	23.104700
281.303000	21.785700
281.403000	21.352300
281.503000	21.785700
281.603000	22.368400
281.703000	22.368400
281.803000	22.515000
281.903000	22.515000
282.003000	22.661900
282.103000	23.104700
282.203000	23.104700
282.303000	23.253000
282.403000	23.550700
282.503000	23.550700
282.603000	23.550700
282.703000	23.550700
282.803000	23.550700
282.903000	23.550700
283.003000	23.550700
283.103000	23.550700
283.203000	23.550700
283.303000	23.550700
283.403000	23.550700
283.503000	23.550700
283.603000	23.550700
283.703000	23.550700
283.803000	22.515000
283.903000	24.000000
284.003000	22.515000
284.103000	24.000000
284.203000	23.550700
284.303000	20.922000
284.403000	24.452600
284.503000	24.301300
284.603000	24.150500
284.703000	24.756100
284.803000	24.150500
284.903000	23.700100
285.003000	24.301300
285.103000	23.849900
285.203000	18.815300
285.303000	24.301300
285.403000	24.150500
285.503000	23.104700
285.603000	15.462800
285.703000	23.700100
285.803000	23.401700
285.903000	17.182100
286.003000	2.095800
286.103000	1.488100
286.203000	15.462800
286.303000	11.437900
286.403000	14.046800
286.503000	17.721500
286.603000	22.956700
286.703000	20.779200
286.803000	23.104700
286.903000	21.208500
287.003000	16.914300
287.103000	23.253000
287.203000	21.640900
287.303000	13.163700
287.403000	21.208500
287.503000	21.930900
287.603000	22.956700
287.703000	22.076400
287.803000	21.496400
287.903000	22.368400
288.003000	22.809100
288.103000	22.956700
288.203000	23.401700
288.303000	23.104700
288.403000	23.550700
288.503000	23.700100
288.603000	23.700100
288.703000	23.700100
288.803000	23.849900
288.903000	23.700100
289.003000	23.700100
289.103000	23.849900
289.203000	23.700100
289.303000	23.401700
289.403000	23.849900
289.503000	23.849900
289.603000	23.849900
289.703000	23.849900
289.803000	23.849900
289.903000	23.849900
290.003000	23.849900
290.103000	23.550700
290.203000	23.700100
290.303000	23.700100
290.403000	23.700100
290.503000	21.785700
290.603000	23.550700
290.703000	23.700100
290.803000	23.550700
290.903000	23.550700
291.003000	23.550700
291.103000	23.401700
291.203000	23.401700
291.303000	23.401700
291.403000	23.401700
291.503000	23.401700
291.603000	23.401700
291.703000	23.401700
291.803000	23.401700
291.903000	18.540000
292.003000	22.515000
292.103000	23.401700
292.203000	23.401700
292.303000	23.253000
292.403000	23.253000
292.503000	23.253000
292.603000	23.253000
292.703000	23.253000
292.803000	23.253000
292.903000	23.253000
293.003000	23.253000
293.103000	23.253000
293.203000	23.253000
293.303000	23.253000
293.403000	23.253000
293.503000	23.253000
293.603000	23.253000
293.703000	23.253000
293.803000	23.401700
293.903000	23.550700
294.003000	23.401700
294.103000	23.401700
294.203000	23.401700
294.303000	23.401700
294.403000	23.401700
294.503000	23.401700
294.603000	23.401700
294.703000	23.401700
294.803000	23.550700
294.903000	23.401700
295.003000	23.550700
295.103000	23.700100
295.203000	23.401700
295.303000	23.700100
295.403000	23.849900
295.503000	23.550700
295.603000	23.700100
295.703000	24.000000
295.803000	23.700100
295.903000	24.000000
296.003000	24.150500
296.103000	23.849900
296.203000	24.000000
296.303000	24.301300
296.403000	24.000000
296.503000	24.150500
296.603000	24.000000
296.703000	24.150500
296.803000	24.452600
296.903000	22.661900
297.003000	17.048100
297.103000	24.604100
297.203000	19.092000
297.303000	24.756100
297.403000	24.756100
297.503000	24.604100
297.603000	18.129300
297.703000	20.636800
297.803000	25.061100
297.903000	25.214200
298.003000	25.367600
298.103000	25.214200
298.203000	25.367600
298.303000	25.521500
298.403000	25.367600
298.503000	25.521500
298.603000	25.675700
298.703000	25.521500
298.803000	25.675700
298.903000	25.214200
299.003000	25.521500
299.103000	25.675700
299.203000	25.830300
299.303000	25.675700
299.403000	25.675700
299.503000	25.830300
299.603000	25.675700
299.703000	25.521500
299.803000	24.756100
299.903000	24.452600
300.003000	24.452600
300.103000	24.452600
300.203000	24.301300
300.303000	24.301300
300.403000	24.000000
300.503000	24.150500
300.603000	24.301300
300.703000	24.452600
300.803000	25.061100
300.903000	25.521500
301.003000	25.521500
301.103000	25.521500
301.203000	25.521500
301.303000	25.521500
301.403000	25.521500
301.503000	25.521500
301.603000	25.521500
301.703000	25.367600
301.803000	25.521500
301.903000	25.521500
302.003000	25.367600
302.103000	25.521500
302.203000	25.521500
302.303000	25.521500
302.403000	25.675700
302.503000	25.521500
302.603000	25.675700
302.703000	25.830300
302.803000	25.830300
302.903000	25.985200
303.003000	25.985200
303.103000	26.608900
303.203000	25.985200
303.303000	26.140600
303.403000	26.140600
303.503000	25.675700
303.603000	27.238800
303.703000	25.675700
303.803000	25.214200
303.903000	25.830300
304.003000	25.367600
304.103000	24.908400
304.203000	25.367600
304.303000	25.061100
304.403000	24.756100
304.503000	25.214200
304.603000	24.756100
304.703000	24.452600
304.803000	24.756100
304.903000	24.452600
305.003000	24.301300
305.103000	24.452600
305.203000	24.301300
305.303000	24.150500
305.403000	24.150500
305.503000	24.150500
305.603000	24.000000
305.703000	23.550700
305.803000	24.000000
305.903000	23.253000
306.003000	23.401700
306.103000	23.401700
306.203000	23.401700
306.303000	23.401700
306.403000	23.550700
306.503000	23.550700
306.603000	23.550700
306.703000	23.550700
306.803000	23.700100
